
  1D histogram 0: Edep in absorber
 
 	     X 		     Y
  0	2.290000e-01	3.100000e+01
  1	2.870000e-01	3.700000e+01
  2	3.450000e-01	3.400000e+01
  3	4.030000e-01	4.400000e+01
  4	4.610000e-01	4.100000e+01
  5	5.190000e-01	3.800000e+01
  6	5.770000e-01	3.700000e+01
  7	6.350000e-01	3.100000e+01
  8	6.930000e-01	3.900000e+01
  9	7.510000e-01	4.400000e+01
  10	8.090000e-01	3.600000e+01
  11	8.670000e-01	5.300000e+01
  12	9.250000e-01	4.300000e+01
  13	9.830000e-01	4.600000e+01
  14	1.041000e+00	5.400000e+01
  15	1.099000e+00	3.300000e+01
  16	1.157000e+00	4.000000e+01
  17	1.215000e+00	6.200000e+01
  18	1.273000e+00	5.000000e+01
  19	1.331000e+00	6.900000e+01
  20	1.389000e+00	6.500000e+01
  21	1.447000e+00	6.300000e+01
  22	1.505000e+00	6.900000e+01
  23	1.563000e+00	6.700000e+01
  24	1.621000e+00	6.000000e+01
  25	1.679000e+00	7.500000e+01
  26	1.737000e+00	9.000000e+01
  27	1.795000e+00	8.100000e+01
  28	1.853000e+00	1.030000e+02
  29	1.911000e+00	1.050000e+02
  30	1.969000e+00	9.100000e+01
  31	2.027000e+00	1.060000e+02
  32	2.085000e+00	1.130000e+02
  33	2.143000e+00	1.120000e+02
  34	2.201000e+00	1.110000e+02
  35	2.259000e+00	1.200000e+02
  36	2.317000e+00	1.200000e+02
  37	2.375000e+00	1.130000e+02
  38	2.433000e+00	1.410000e+02
  39	2.491000e+00	1.420000e+02
  40	2.549000e+00	1.510000e+02
  41	2.607000e+00	1.570000e+02
  42	2.665000e+00	1.640000e+02
  43	2.723000e+00	1.800000e+02
  44	2.781000e+00	1.780000e+02
  45	2.839000e+00	1.930000e+02
  46	2.897000e+00	2.210000e+02
  47	2.955000e+00	2.200000e+02
  48	3.013000e+00	2.250000e+02
  49	3.071000e+00	2.370000e+02
  50	3.129000e+00	2.380000e+02
  51	3.187000e+00	2.780000e+02
  52	3.245000e+00	2.840000e+02
  53	3.303000e+00	3.220000e+02
  54	3.361000e+00	3.700000e+02
  55	3.419000e+00	3.870000e+02
  56	3.477000e+00	4.000000e+02
  57	3.535000e+00	4.170000e+02
  58	3.593000e+00	4.510000e+02
  59	3.651000e+00	5.020000e+02
  60	3.709000e+00	5.090000e+02
  61	3.767000e+00	5.880000e+02
  62	3.825000e+00	6.400000e+02
  63	3.883000e+00	7.130000e+02
  64	3.941000e+00	7.990000e+02
  65	3.999000e+00	9.160000e+02
  66	4.057000e+00	1.029000e+03
  67	4.115000e+00	1.070000e+03
  68	4.173000e+00	1.260000e+03
  69	4.231000e+00	1.355000e+03
  70	4.289000e+00	1.294000e+03
  71	4.347000e+00	4.880000e+02
  72	4.405000e+00	3.700000e+01
  73	4.463000e+00	0.000000e+00
  74	4.521000e+00	0.000000e+00
  75	4.579000e+00	1.000000e+00
  76	4.637000e+00	0.000000e+00
  77	4.695000e+00	0.000000e+00
  78	4.753000e+00	1.000000e+00
  79	4.811000e+00	1.000000e+00
  80	4.869000e+00	0.000000e+00
  81	4.927000e+00	0.000000e+00
  82	4.985000e+00	0.000000e+00
  83	5.043000e+00	1.000000e+00
  84	5.101000e+00	4.000000e+00
  85	5.159000e+00	0.000000e+00
  86	5.217000e+00	0.000000e+00
  87	5.275000e+00	0.000000e+00
  88	5.333000e+00	0.000000e+00
  89	5.391000e+00	0.000000e+00
  90	5.449000e+00	0.000000e+00
  91	5.507000e+00	0.000000e+00
  92	5.565000e+00	0.000000e+00
  93	5.623000e+00	0.000000e+00
  94	5.681000e+00	0.000000e+00
  95	5.739000e+00	0.000000e+00
  96	5.797000e+00	0.000000e+00
  97	5.855000e+00	0.000000e+00
  98	5.913000e+00	0.000000e+00
  99	5.971000e+00	0.000000e+00

  1D histogram 1: trackL in absorber
 
 	     X 		     Y
  0	2.290000e+00	5.800000e+01
  1	2.870000e+00	7.900000e+01
  2	3.450000e+00	9.000000e+01
  3	4.030000e+00	8.200000e+01
  4	4.610000e+00	1.090000e+02
  5	5.190000e+00	9.900000e+01
  6	5.770000e+00	1.080000e+02
  7	6.350000e+00	1.040000e+02
  8	6.930000e+00	1.130000e+02
  9	7.510000e+00	1.260000e+02
  10	8.090000e+00	1.410000e+02
  11	8.670000e+00	1.160000e+02
  12	9.250000e+00	1.640000e+02
  13	9.830000e+00	1.490000e+02
  14	1.041000e+01	1.720000e+02
  15	1.099000e+01	1.660000e+02
  16	1.157000e+01	1.780000e+02
  17	1.215000e+01	1.600000e+02
  18	1.273000e+01	1.830000e+02
  19	1.331000e+01	1.600000e+02
  20	1.389000e+01	1.940000e+02
  21	1.447000e+01	2.010000e+02
  22	1.505000e+01	2.070000e+02
  23	1.563000e+01	2.030000e+02
  24	1.621000e+01	2.440000e+02
  25	1.679000e+01	2.230000e+02
  26	1.737000e+01	2.500000e+02
  27	1.795000e+01	2.510000e+02
  28	1.853000e+01	2.710000e+02
  29	1.911000e+01	2.560000e+02
  30	1.969000e+01	2.890000e+02
  31	2.027000e+01	2.890000e+02
  32	2.085000e+01	3.400000e+02
  33	2.143000e+01	3.730000e+02
  34	2.201000e+01	3.820000e+02
  35	2.259000e+01	4.010000e+02
  36	2.317000e+01	4.060000e+02
  37	2.375000e+01	4.470000e+02
  38	2.433000e+01	4.440000e+02
  39	2.491000e+01	4.780000e+02
  40	2.549000e+01	5.620000e+02
  41	2.607000e+01	5.740000e+02
  42	2.665000e+01	6.180000e+02
  43	2.723000e+01	6.800000e+02
  44	2.781000e+01	7.370000e+02
  45	2.839000e+01	8.570000e+02
  46	2.897000e+01	9.050000e+02
  47	2.955000e+01	9.110000e+02
  48	3.013000e+01	1.050000e+03
  49	3.071000e+01	1.149000e+03
  50	3.129000e+01	1.134000e+03
  51	3.187000e+01	8.000000e+02
  52	3.245000e+01	3.430000e+02
  53	3.303000e+01	4.800000e+01
  54	3.361000e+01	4.000000e+00
  55	3.419000e+01	1.000000e+00
  56	3.477000e+01	0.000000e+00
  57	3.535000e+01	0.000000e+00
  58	3.593000e+01	0.000000e+00
  59	3.651000e+01	0.000000e+00
  60	3.709000e+01	1.000000e+00
  61	3.767000e+01	1.000000e+00
  62	3.825000e+01	0.000000e+00
  63	3.883000e+01	0.000000e+00
  64	3.941000e+01	0.000000e+00
  65	3.999000e+01	0.000000e+00
  66	4.057000e+01	0.000000e+00
  67	4.115000e+01	1.000000e+00
  68	4.173000e+01	2.000000e+00
  69	4.231000e+01	2.000000e+00
  70	4.289000e+01	0.000000e+00
  71	4.347000e+01	0.000000e+00
  72	4.405000e+01	0.000000e+00
  73	4.463000e+01	0.000000e+00
  74	4.521000e+01	0.000000e+00
  75	4.579000e+01	0.000000e+00
  76	4.637000e+01	0.000000e+00
  77	4.695000e+01	0.000000e+00
  78	4.753000e+01	0.000000e+00
  79	4.811000e+01	0.000000e+00
  80	4.869000e+01	0.000000e+00
  81	4.927000e+01	0.000000e+00
  82	4.985000e+01	0.000000e+00
  83	5.043000e+01	0.000000e+00
  84	5.101000e+01	0.000000e+00
  85	5.159000e+01	0.000000e+00
  86	5.217000e+01	0.000000e+00
  87	5.275000e+01	0.000000e+00
  88	5.333000e+01	0.000000e+00
  89	5.391000e+01	0.000000e+00
  90	5.449000e+01	0.000000e+00
  91	5.507000e+01	0.000000e+00
  92	5.565000e+01	0.000000e+00
  93	5.623000e+01	0.000000e+00
  94	5.681000e+01	0.000000e+00
  95	5.739000e+01	0.000000e+00
  96	5.797000e+01	0.000000e+00
  97	5.855000e+01	0.000000e+00
  98	5.913000e+01	0.000000e+00
  99	5.971000e+01	0.000000e+00

  1D histogram 3: Scintillation Spectrum
 
 	     X 		     Y
  0	3.106200e-06	1.254700e+04
  1	3.118600e-06	6.148000e+03
  2	3.131000e-06	2.005000e+03
  3	3.143400e-06	6.137000e+03
  4	3.155800e-06	1.124700e+04
  5	3.168200e-06	2.770700e+04
  6	3.180600e-06	1.900100e+04
  7	3.193000e-06	8.133000e+03
  8	3.205400e-06	3.794000e+03
  9	3.217800e-06	9.730000e+02
  10	3.230200e-06	1.492000e+03
  11	3.242600e-06	6.074000e+03
  12	3.255000e-06	5.002100e+04
  13	3.267400e-06	6.150000e+04
  14	3.279800e-06	1.939500e+04
  15	3.292200e-06	1.637900e+04
  16	3.304600e-06	3.414800e+04
  17	3.317000e-06	1.915900e+04
  18	3.329400e-06	4.788000e+03
  19	3.341800e-06	7.221000e+03
  20	3.354200e-06	6.732000e+03
  21	3.366600e-06	3.831000e+03
  22	3.379000e-06	1.693000e+03
  23	3.391400e-06	2.429000e+03
  24	3.403800e-06	3.096000e+03
  25	3.416200e-06	6.101000e+03
  26	3.428600e-06	8.292000e+03
  27	3.441000e-06	1.378300e+04
  28	3.453400e-06	5.851800e+04
  29	3.465800e-06	1.689420e+05
  30	3.478200e-06	1.269850e+05
  31	3.490600e-06	4.932400e+04
  32	3.503000e-06	4.533400e+04
  33	3.515400e-06	3.568300e+04
  34	3.527800e-06	1.385700e+04
  35	3.540200e-06	7.354000e+03
  36	3.552600e-06	6.081000e+03
  37	3.565000e-06	5.653000e+03
  38	3.577400e-06	3.981000e+03
  39	3.589800e-06	1.547000e+03
  40	3.602200e-06	3.219000e+03
  41	3.614600e-06	6.620000e+03
  42	3.627000e-06	7.563000e+03
  43	3.639400e-06	1.378100e+04
  44	3.651800e-06	2.541600e+04
  45	3.664200e-06	1.105250e+05
  46	3.676600e-06	2.618520e+05
  47	3.689000e-06	2.304410e+05
  48	3.701400e-06	8.160700e+04
  49	3.713800e-06	3.087000e+04
  50	3.726200e-06	1.410300e+04
  51	3.738600e-06	7.516000e+03
  52	3.751000e-06	6.378000e+03
  53	3.763400e-06	7.113000e+03
  54	3.775800e-06	7.181000e+03
  55	3.788200e-06	9.085000e+03
  56	3.800600e-06	4.357000e+03
  57	3.813000e-06	1.726000e+03
  58	3.825400e-06	2.131000e+03
  59	3.837800e-06	3.668000e+03
  60	3.850200e-06	2.756000e+03
  61	3.862600e-06	9.570000e+02
  62	3.875000e-06	2.579000e+03
  63	3.887400e-06	3.328000e+03
  64	3.899800e-06	9.281000e+03
  65	3.912200e-06	4.185900e+04
  66	3.924600e-06	1.072010e+05
  67	3.937000e-06	1.031660e+05
  68	3.949400e-06	6.072400e+04
  69	3.961800e-06	4.278700e+04
  70	3.974200e-06	2.379500e+04
  71	3.986600e-06	1.470700e+04
  72	3.999000e-06	1.204500e+04
  73	4.011400e-06	7.480000e+03
  74	4.023800e-06	6.069000e+03
  75	4.036200e-06	3.929000e+03
  76	4.048600e-06	1.991000e+03
  77	4.061000e-06	4.830000e+02
  78	4.073400e-06	3.606000e+03
  79	4.085800e-06	2.588000e+03
  80	4.098200e-06	2.180000e+03
  81	4.110600e-06	2.003000e+03
  82	4.123000e-06	1.789000e+03
  83	4.135400e-06	3.377000e+03
  84	4.147800e-06	9.040000e+03
  85	4.160200e-06	1.395200e+04
  86	4.172600e-06	2.065400e+04
  87	4.185000e-06	2.073500e+04
  88	4.197400e-06	1.609900e+04
  89	4.209800e-06	8.626000e+03
  90	4.222200e-06	6.950000e+02
  91	4.234600e-06	2.000000e+01
  92	4.247000e-06	0.000000e+00
  93	4.259400e-06	0.000000e+00
  94	4.271800e-06	0.000000e+00
  95	4.284200e-06	0.000000e+00
  96	4.296600e-06	0.000000e+00
  97	4.309000e-06	1.400000e+01
  98	4.321400e-06	7.100000e+01
  99	4.333800e-06	1.870000e+02
  100	4.346200e-06	3.230000e+02
  101	4.358600e-06	2.670000e+02
  102	4.371000e-06	1.450000e+02
  103	4.383400e-06	6.400000e+01
  104	4.395800e-06	1.600000e+01
  105	4.408200e-06	3.000000e+01
  106	4.420600e-06	5.200000e+01
  107	4.433000e-06	3.900000e+01
  108	4.445400e-06	3.600000e+01
  109	4.457800e-06	3.500000e+01
  110	4.470200e-06	1.900000e+01
  111	4.482600e-06	0.000000e+00
  112	4.495000e-06	0.000000e+00
  113	4.507400e-06	0.000000e+00
  114	4.519800e-06	9.000000e+00
  115	4.532200e-06	8.100000e+01
  116	4.544600e-06	2.540000e+02
  117	4.557000e-06	5.850000e+02
  118	4.569400e-06	6.460000e+02
  119	4.581800e-06	6.100000e+02
  120	4.594200e-06	3.450000e+02
  121	4.606600e-06	1.630000e+02
  122	4.619000e-06	1.170000e+02
  123	4.631400e-06	1.020000e+02
  124	4.643800e-06	9.200000e+01
  125	4.656200e-06	8.400000e+01
  126	4.668600e-06	4.300000e+01
  127	4.681000e-06	1.100000e+01
  128	4.693400e-06	0.000000e+00
  129	4.705800e-06	0.000000e+00
  130	4.718200e-06	0.000000e+00
  131	4.730600e-06	1.900000e+01
  132	4.743000e-06	6.000000e+01
  133	4.755400e-06	2.510000e+02
  134	4.767800e-06	7.610000e+02
  135	4.780200e-06	1.278000e+03
  136	4.792600e-06	1.456000e+03
  137	4.805000e-06	1.189000e+03
  138	4.817400e-06	6.880000e+02
  139	4.829800e-06	4.010000e+02
  140	4.842200e-06	2.630000e+02
  141	4.854600e-06	1.440000e+02
  142	4.867000e-06	1.150000e+02
  143	4.879400e-06	1.020000e+02
  144	4.891800e-06	5.800000e+01
  145	4.904200e-06	2.200000e+01
  146	4.916600e-06	5.000000e+00
  147	4.929000e-06	0.000000e+00
  148	4.941400e-06	1.000000e+01
  149	4.953800e-06	2.800000e+01
  150	4.966200e-06	1.030000e+02
  151	4.978600e-06	4.270000e+02
  152	4.991000e-06	1.112000e+03
  153	5.003400e-06	2.052000e+03
  154	5.015800e-06	2.337000e+03
  155	5.028200e-06	2.221000e+03
  156	5.040600e-06	1.559000e+03
  157	5.053000e-06	8.430000e+02
  158	5.065400e-06	4.700000e+02
  159	5.077800e-06	2.630000e+02
  160	5.090200e-06	1.260000e+02
  161	5.102600e-06	6.800000e+01
  162	5.115000e-06	4.600000e+01
  163	5.127400e-06	1.900000e+01
  164	5.139800e-06	1.600000e+01
  165	5.152200e-06	1.900000e+01
  166	5.164600e-06	3.000000e+01
  167	5.177000e-06	4.600000e+01
  168	5.189400e-06	1.120000e+02
  169	5.201800e-06	4.870000e+02
  170	5.214200e-06	1.259000e+03
  171	5.226600e-06	2.029000e+03
  172	5.239000e-06	2.857000e+03
  173	5.251400e-06	3.039000e+03
  174	5.263800e-06	2.387000e+03
  175	5.276200e-06	1.622000e+03
  176	5.288600e-06	9.270000e+02
  177	5.301000e-06	4.260000e+02
  178	5.313400e-06	2.440000e+02
  179	5.325800e-06	1.430000e+02
  180	5.338200e-06	8.200000e+01
  181	5.350600e-06	4.700000e+01
  182	5.363000e-06	3.000000e+01
  183	5.375400e-06	1.600000e+01
  184	5.387800e-06	1.500000e+01
  185	5.400200e-06	2.300000e+01
  186	5.412600e-06	6.700000e+01
  187	5.425000e-06	2.040000e+02
  188	5.437400e-06	5.790000e+02
  189	5.449800e-06	1.094000e+03
  190	5.462200e-06	1.648000e+03
  191	5.474600e-06	2.202000e+03
  192	5.487000e-06	2.107000e+03
  193	5.499400e-06	1.731000e+03
  194	5.511800e-06	1.353000e+03
  195	5.524200e-06	7.060000e+02
  196	5.536600e-06	4.770000e+02
  197	5.549000e-06	3.440000e+02
  198	5.561400e-06	2.070000e+02
  199	5.573800e-06	8.000000e+01
  200	5.586200e-06	7.100000e+01
  201	5.598600e-06	3.500000e+01
  202	5.611000e-06	0.000000e+00
  203	5.623400e-06	1.400000e+01
  204	5.635800e-06	1.700000e+01
  205	5.648200e-06	2.100000e+01
  206	5.660600e-06	0.000000e+00
  207	5.673000e-06	0.000000e+00
  208	5.685400e-06	0.000000e+00
  209	5.697800e-06	0.000000e+00
  210	5.710200e-06	1.200000e+01
  211	5.722600e-06	8.000000e+00
  212	5.735000e-06	1.300000e+02
  213	5.747400e-06	2.370000e+02
  214	5.759800e-06	3.130000e+02
  215	5.772200e-06	3.310000e+02
  216	5.784600e-06	3.100000e+02
  217	5.797000e-06	2.030000e+02
  218	5.809400e-06	1.460000e+02
  219	5.821800e-06	9.600000e+01
  220	5.834200e-06	2.600000e+01
  221	5.846600e-06	1.200000e+01
  222	5.859000e-06	2.200000e+01
  223	5.871400e-06	3.600000e+01
  224	5.883800e-06	1.500000e+01
  225	5.896200e-06	1.100000e+01
  226	5.908600e-06	0.000000e+00
  227	5.921000e-06	0.000000e+00
  228	5.933400e-06	8.000000e+00
  229	5.945800e-06	2.100000e+01
  230	5.958200e-06	5.700000e+01
  231	5.970600e-06	7.400000e+01
  232	5.983000e-06	4.600000e+01
  233	5.995400e-06	1.800000e+01
  234	6.007800e-06	0.000000e+00
  235	6.020200e-06	0.000000e+00
  236	6.032600e-06	0.000000e+00
  237	6.045000e-06	0.000000e+00
  238	6.057400e-06	9.000000e+00
  239	6.069800e-06	1.700000e+01
  240	6.082200e-06	2.900000e+01
  241	6.094600e-06	3.200000e+01
  242	6.107000e-06	1.500000e+01
  243	6.119400e-06	1.200000e+01
  244	6.131800e-06	1.200000e+01
  245	6.144200e-06	8.000000e+00
  246	6.156600e-06	1.100000e+01
  247	6.169000e-06	0.000000e+00
  248	6.181400e-06	0.000000e+00
  249	6.193800e-06	0.000000e+00
